wavelength (nm),Irradiance (watts/cm^2/nm)
199.5,0.005498
200.5,0.0070339999999999995
201.5,0.007176
202.5,0.007875
203.5,0.008704
204.5,0.009467
205.5,0.009555999999999999
206.5,0.01018
207.5,0.011470000000000001
208.5,0.01456
209.5,0.024239999999999998
210.5,0.027510000000000003
211.5,0.03386
212.5,0.03015
213.5,0.03187
214.5,0.04096
215.5,0.03691
216.5,0.03417
217.5,0.036109999999999996
218.5,0.04494
219.5,0.047619999999999996
220.5,0.04813
221.5,0.039310000000000005
222.5,0.05064
223.5,0.06584999999999999
224.5,0.05787
225.5,0.05392
226.5,0.040979999999999996
227.5,0.04089
228.5,0.05399
229.5,0.04779
230.5,0.056280000000000004
231.5,0.04995
232.5,0.05486
233.5,0.045869999999999994
234.5,0.03933
235.5,0.05694
236.5,0.049229999999999996
237.5,0.05328
238.5,0.04192
239.5,0.04646
240.5,0.04305
241.5,0.05248
242.5,0.07246999999999999
243.5,0.06541
244.5,0.06239
245.5,0.05114
246.5,0.0515
247.5,0.05714
248.5,0.04518
249.5,0.05843
250.5,0.05923
251.5,0.04661
252.5,0.04399
253.5,0.055479999999999995
254.5,0.06079
255.5,0.0885
256.5,0.1067
257.5,0.12940000000000002
258.5,0.1343
259.5,0.10779999999999999
260.5,0.102
261.5,0.1032
262.5,0.12090000000000001
263.5,0.1754
264.5,0.2737
265.5,0.2802
266.5,0.2605
267.5,0.2699
268.5,0.26
269.5,0.2524
270.5,0.2933
271.5,0.2323
272.5,0.2147
273.5,0.2038
274.5,0.1373
275.5,0.2002
276.5,0.25830000000000003
277.5,0.2402
278.5,0.1659
279.5,0.08942
280.5,0.1124
281.5,0.2311
282.5,0.3068
283.5,0.3295
284.5,0.244
285.5,0.141
286.5,0.31989999999999996
287.5,0.3712
288.5,0.30660000000000004
289.5,0.4556
290.5,0.6227
291.5,0.6002000000000001
292.5,0.5452
293.5,0.5454
294.5,0.5092
295.5,0.5484
296.5,0.4924
297.5,0.5314
298.5,0.4127
299.5,0.4848
300.5,0.4026
301.5,0.44539999999999996
302.5,0.4839
303.5,0.6307
304.5,0.6103999999999999
305.5,0.5798
306.5,0.5752999999999999
307.5,0.645
308.5,0.6134
309.5,0.4839
310.0,0.49460000000000004
310.40000000000003,0.507
310.8,0.5881000000000001
311.2,0.7069
311.59999999999997,0.7475
312.0,0.707
312.40000000000003,0.6439
312.8,0.6628
313.2,0.7101000000000001
313.59999999999997,0.6912999999999999
314.0,0.6895
314.40000000000003,0.7216
314.8,0.6726
315.2,0.6952999999999999
315.59999999999997,0.7652
316.0,0.6747000000000001
316.40000000000003,0.5691
316.8,0.6229
317.2,0.7486
317.59999999999997,0.8298
318.0,0.8129
318.40000000000003,0.6732
318.79999999999995,0.6421
319.2,0.7677999999999999
319.6,0.7594
320.0,0.7122
320.40000000000003,0.7784
320.79999999999995,0.8437
321.2,0.8466
321.6,0.7362000000000001
322.0,0.6947000000000001
322.40000000000003,0.7732
322.79999999999995,0.7581
323.2,0.6457
323.6,0.6032000000000001
324.0,0.6042000000000001
324.40000000000003,0.6185
324.79999999999995,0.6545
325.2,0.646
325.6,0.682
326.0,0.8523999999999999
326.40000000000003,1.049
326.79999999999995,1.111
327.2,1.108
327.6,1.05
328.0,0.9645
328.40000000000003,0.9144
328.79999999999995,0.9126000000000001
329.2,0.9515
329.6,1.043
330.0,1.144
330.40000000000003,1.137
330.5,1.006
331.5,0.9676
332.5,0.9207000000000001
333.5,0.9047000000000001
334.5,0.9397000000000001
335.5,0.9816
336.5,0.7649
337.5,0.8657999999999999
338.5,0.9157000000000001
339.5,0.9367000000000001
340.5,0.9916
341.5,0.9357000000000001
342.5,0.9946
343.5,0.9846
344.5,0.719
345.5,0.9666
346.5,0.9187000000000001
347.5,0.9017000000000001
348.5,0.9477000000000001
349.5,0.8647999999999999
350.5,1.119
351.5,0.9926
352.5,0.8707999999999999
353.5,1.115
354.5,1.133
355.5,1.058
356.5,0.9377000000000001
357.5,0.8907999999999999
358.5,0.6271
359.5,1.136
360.5,0.9786
361.5,0.8937
362.5,1.175
363.5,0.9577
364.5,1.015
365.5,1.263
366.5,1.249
367.5,1.214
368.5,1.088
369.5,1.331
370.5,1.075
371.5,1.307
372.5,1.065
373.5,0.8378
374.5,0.8777999999999999
375.5,1.141
376.5,1.101
377.5,1.291
378.5,1.341
379.5,0.9996
380.5,1.289
381.5,1.096
382.5,0.733
383.5,0.684
384.5,1.027
385.5,0.9537
386.5,1.071
387.5,0.9656
388.5,0.9117000000000001
389.5,1.227
390.5,1.223
391.5,1.398
392.5,0.9547
393.5,0.4893
394.5,1.101
395.5,1.378
396.5,0.6501
397.5,1.04
398.5,1.538
399.5,1.655
400.5,1.649
401.5,1.796
402.5,1.803
403.5,1.658
404.5,1.602
405.5,1.672
406.5,1.624
407.5,1.545
408.5,1.824
409.5,1.706
410.5,1.502
411.5,1.819
412.5,1.791
413.5,1.758
414.5,1.739
415.5,1.736
416.5,1.844
417.5,1.667
418.5,1.686
419.5,1.703
420.5,1.76
421.5,1.799
422.5,1.584
423.5,1.713
424.5,1.77
425.5,1.697
426.5,1.7
427.5,1.571
428.5,1.589
429.5,1.477
430.5,1.136
431.5,1.688
432.5,1.648
433.5,1.733
434.5,1.672
435.5,1.725
436.5,1.931
437.5,1.808
438.5,1.569
439.5,1.827
440.5,1.715
441.5,1.933
442.5,1.982
443.5,1.911
444.5,1.975
445.5,1.823
446.5,1.893
447.5,2.079
448.5,1.975
449.5,2.029
450.5,2.146
451.5,2.111
452.5,1.943
453.5,1.972
454.5,1.981
455.5,2.036
456.5,2.079
457.5,2.102
458.5,1.973
459.5,2.011
460.5,2.042
461.5,2.057
462.5,2.106
463.5,2.042
464.5,1.978
465.5,2.044
466.5,1.923
467.5,2.017
468.5,1.996
469.5,1.992
470.5,1.879
471.5,2.02
472.5,2.043
473.5,1.993
474.5,2.053
475.5,2.018
476.5,1.958
477.5,2.077
478.5,2.011
479.5,2.078
480.5,2.037
481.5,2.092
482.5,2.025
483.5,2.021
484.5,1.971
485.5,1.832
486.5,1.627
487.5,1.832
488.5,1.916
489.5,1.962
490.5,2.009
491.5,1.898
492.5,1.898
493.5,1.89
494.5,2.06
495.5,1.928
496.5,2.019
497.5,2.02
498.5,1.868
499.5,1.972
500.49999999999994,1.859
501.49999999999994,1.814
502.49999999999994,1.896
503.49999999999994,1.936
504.49999999999994,1.871
505.49999999999994,1.995
506.49999999999994,1.963
507.49999999999994,1.908
508.49999999999994,1.921
509.49999999999994,1.918
510.49999999999994,1.949
511.49999999999994,1.999
512.5,1.869
513.5,1.863
514.5,1.876
515.5,1.902
516.5,1.671
517.5,1.728
518.5,1.656
519.5,1.83
520.5,1.833
521.5,1.908
522.5,1.825
523.5,1.896
524.5,1.96
525.5,1.932
526.5,1.676
527.5,1.83
528.5,1.899
529.5,1.92
530.5,1.954
531.5,1.965
532.5,1.773
533.5,1.925
534.5,1.86
535.5,1.992
536.5,1.873
537.5,1.884
538.5,1.906
539.5,1.834
540.5,1.772
541.5,1.883
542.5,1.827
543.5,1.881
544.5,1.881
545.5,1.903
546.5,1.881
547.5,1.835
548.5,1.865
549.5,1.897
550.5,1.864
551.5,1.873
552.5,1.848
553.5,1.884
554.5,1.9
555.5,1.899
556.5,1.823
557.5,1.848
558.5,1.789
559.5,1.81
560.5,1.845
561.5,1.826
562.5,1.852
563.5,1.863
564.5,1.856
565.5,1.8
566.5,1.831
567.5,1.889
568.5,1.812
569.5,1.862
570.5,1.772
571.5,1.825
572.5,1.894
573.5,1.878
574.5,1.869
575.5,1.832
576.5,1.848
577.5,1.859
578.5,1.786
579.5,1.83
580.5,1.84
581.5,1.855
582.5,1.875
583.5,1.859
584.5,1.862
585.5,1.786
586.5,1.832
587.5,1.85
588.5,1.752
589.5,1.614
590.5,1.815
591.5,1.789
592.5,1.81
593.5,1.798
594.5,1.776
595.5,1.785
596.5,1.807
597.5,1.783
598.5,1.76
599.5,1.777
600.5,1.748
601.5,1.753
602.5,1.721
603.5,1.789
604.5,1.779
605.5,1.766
606.5,1.762
607.5,1.76
608.5,1.745
609.5,1.746
610.5,1.705
611.5,1.748
612.5,1.707
613.5,1.685
614.5,1.715
615.5,1.715
616.5,1.611
617.5,1.709
618.5,1.726
619.5,1.709
620.5,1.736
621.5,1.692
622.5,1.715
623.5,1.668
624.5,1.658
625.5,1.634
626.5,1.699
627.5,1.699
628.5,1.699
629.5,1.679
631.0,1.641
633.0,1.653
635.0,1.658
637.0,1.656
639.0,1.653
641.0,1.616
643.0,1.623
645.0,1.629
647.0,1.605
649.0,1.56
651.0,1.608
653.0,1.601
655.0,1.534
657.0,1.386
659.0,1.551
661.0,1.573
663.0,1.557
665.0,1.562
667.0,1.537
669.0,1.548
671.0,1.518
673.0,1.523
675.0,1.512
677.0,1.51
679.0,1.5
681.0,1.494
683.0,1.481
685.0,1.457
687.0,1.469
689.0,1.463
691.0,1.45
693.0,1.45
695.0,1.438
697.0,1.418
699.0,1.427
701.0,1.388
703.0,1.39
705.0,1.417
707.0,1.402
709.0,1.386
711.0,1.387
713.0,1.375
715.0,1.368
717.0,1.355
719.0,1.329
721.0,1.332
723.0,1.349
725.0,1.351
727.0,1.347
729.0,1.32
731.0,1.327
733.0,1.319
735.0,1.31
737.0,1.308
739.0,1.279
741.0,1.259
743.0,1.287
745.0,1.28
747.0,1.284
749.0,1.271
751.0,1.263
753.0,1.26
755.0,1.256
757.0,1.249
759.0,1.241
761.0,1.238
763.0,1.242
765.0,1.222
767.0,1.186
769.0,1.204
771.0,1.205
773.0,1.209
775.0,1.189
777.0,1.197
779.0,1.188
781.0,1.188
783.0,1.177
785.0,1.181
787.0,1.178
789.0,1.175
791.0,1.159
793.0,1.144
795.0,1.135
797.0,1.153
799.0,1.136
801.0,1.143
803.0,1.13
805.0,1.116
807.0,1.121
809.0,1.096
811.0,1.115
813.0,1.116
815.0,1.108
817.0,1.105
819.0,1.065
821.0,1.081
823.0,1.074
825.0,1.076
827.0,1.077
829.0,1.073
831.0,1.069
833.0,1.034
835.0,1.053
837.0,1.052
839.0,1.042
841.0,1.045
843.0,1.028
845.0,1.033
847.0,1.025
849.0,0.9706
851.0,1.003
853.0,0.9726
855.0,0.8767999999999999
857.0,1.011
859.0,0.9966
861.0,0.9966
863.0,0.9986
865.0,0.9696
867.0,0.8797999999999999
869.0,0.9666
871.0,0.9861
873.0,0.9783999999999999
875.0,0.9813999999999999
877.0,0.9835
879.0,0.9591000000000001
881.0,0.9605
883.0,0.9484
885.0,0.9629
887.0,0.9474
889.0,0.949
891.0,0.9441
893.0,0.9338
895.0,0.9355
897.0,0.939
899.0,0.9117999999999999
901.0,0.9047999999999999
903.0,0.9048999999999999
905.0,0.8927
907.0,0.8906000000000001
909.0,0.8613
911.0,0.8703
913.0,0.8763
915.0,0.8662000000000001
917.0,0.8591
919.0,0.858
921.0,0.8302
923.0,0.8212999999999999
925.0,0.8252999999999999
927.0,0.8284
929.0,0.8325
931.0,0.8258
933.0,0.832
935.0,0.8177000000000001
937.0,0.8016
939.0,0.808
941.0,0.8
943.0,0.7842
945.0,0.7988
947.0,0.793
949.0,0.7767999999999999
951.0,0.7782
953.0,0.771
955.0,0.76
957.0,0.7735
959.0,0.7707
961.0,0.7671
963.0,0.7666000000000001
965.0,0.7643
967.0,0.7574
969.0,0.776
971.0,0.7627
973.0,0.7642
975.0,0.7503
977.0,0.7679
979.0,0.7682
981.0,0.7617999999999999
983.0,0.7665
985.0,0.7713
987.0,0.7557999999999999
989.0,0.7666000000000001
991.0,0.7636000000000001
993.0,0.7546
995.0,0.7563
997.0,0.743
999.0,0.7434
1002.5,0.745
1007.5000000000001,0.7367999999999999
1012.5,0.7336
1017.5000000000001,0.7209
1022.5,0.7035
1027.5,0.7078
1032.5,0.6881
1037.5,0.6916
1042.5,0.681
1047.5,0.6848
1052.5,0.6607000000000001
1057.5,0.6496000000000001
1062.5,0.6419
1067.5,0.6429
1072.5,0.638
1077.5,0.6303
1082.5,0.6205
1087.5,0.6137
1092.5,0.6117999999999999
1097.5,0.599
1102.5,0.6082000000000001
1107.5,0.6013
1112.5,0.6025
1117.5,0.5887
1122.5,0.5788
1127.5,0.569
1132.5,0.5661
1137.5,0.5632999999999999
1142.5,0.5574
1147.5,0.5556
1152.5,0.5447000000000001
1157.5,0.5539
1162.5,0.54
1167.5,0.5301
1172.5,0.5333
1177.5,0.5254
1182.5,0.5145
1187.5,0.5117
1192.5,0.5113
1197.5,0.5018
1202.5,0.4963
1207.5,0.49389999999999995
1212.5,0.4894
1217.5,0.5001
1222.5,0.4814
1227.5,0.4809
1232.5,0.4835
1237.5,0.4772
1242.5,0.4771
1247.5,0.4655
1252.5,0.4737
1257.5,0.4634
1262.5,0.44380000000000003
1267.5,0.43760000000000004
1272.5,0.43860000000000005
1277.5,0.45289999999999997
1282.5,0.43539999999999995
1287.5,0.43739999999999996
1292.5,0.4425
1297.5,0.4383
1302.5,0.43810000000000004
1307.5,0.42860000000000004
1312.5,0.419
1317.5,0.4156
1322.5,0.4164
1327.5,0.411
1332.5,0.4045
1337.5,0.4001
1342.5,0.3978
1347.5,0.3945
1352.5,0.387
1357.5,0.3817
1362.5,0.3783
1367.5,0.36989999999999995
1372.5,0.36860000000000004
1377.5,0.36839999999999995
1382.5,0.364
1387.5,0.3638
1392.5,0.3584
1397.5,0.35719999999999996
1402.5,0.3528
1407.5,0.3496
1412.5,0.3463
1417.5,0.344
1422.5,0.3427
1427.5,0.3475
1432.5,0.3372
1437.5,0.33089999999999997
1442.5,0.3266
1447.5,0.31839999999999996
1452.5,0.3231
1457.5,0.30689999999999995
1462.5,0.31660000000000005
1467.5,0.31139999999999995
1472.5,0.3112
1477.5,0.30689999999999995
1482.5,0.30269999999999997
1487.5,0.2985
1492.5,0.3033
1497.5,0.3
1502.5,0.2958
1507.5,0.29460000000000003
1512.5,0.2904
1517.5,0.2902
1522.5,0.286
1527.5,0.2897
1532.5,0.2816
1537.5,0.2745
1542.5,0.2752
1547.5,0.274
1552.5,0.2728
1557.5,0.2716
1562.5,0.2695
1567.5,0.26330000000000003
1572.5,0.2602
1577.5,0.259
1582.5,0.2549
1587.5,0.2517
1592.5,0.24559999999999998
1597.5,0.2464
1602.5,0.24730000000000002
1607.5,0.2424
1612.5,0.2444
1617.5,0.2434
1622.5,0.2404
1627.5,0.24430000000000002
1632.5,0.2414
1637.5,0.2375
1642.5,0.2336
1647.5,0.2345
1652.5,0.2335
1657.5,0.2335
1662.5,0.2326
1667.5,0.2286
1672.5,0.2276
1677.5,0.21980000000000002
1682.5,0.22080000000000002
1687.5,0.21880000000000002
1692.5,0.21880000000000002
1697.5,0.2139
1702.5,0.21680000000000002
1707.5,0.2119
1712.5,0.2031
1717.5,0.2119
1722.5,0.205
1727.5,0.19619999999999999
1732.5,0.19030000000000002
1737.5,0.18930000000000002
1742.5,0.1913
1747.5,0.1854
1752.5,0.1874
1757.5,0.18930000000000002
1762.5,0.1844
1767.5,0.1825
1772.5,0.1766
1777.5,0.1726
1782.5,0.1707
1787.5,0.1697
1792.5,0.1687
1797.5,0.1726
1802.5,0.1687
1807.5,0.1677
1812.5,0.15990000000000001
1817.5,0.15990000000000001
1822.5,0.1589
1827.5,0.1559
1832.5,0.1559
1837.5,0.15
1842.5,0.153
1847.5,0.151
1852.5,0.14809999999999998
1857.5,0.1451
1862.5,0.1432
1867.5,0.1432
1872.5,0.1353
1877.5,0.1353
1882.5,0.1402
1887.5,0.1383
1892.5,0.1373
1897.5,0.1383
1902.5,0.13340000000000002
1907.5,0.1363
1912.5,0.1383
1917.5,0.1363
1922.5,0.1343
1927.5,0.13240000000000002
1932.5,0.13240000000000002
1937.5,0.13140000000000002
1942.5,0.12940000000000002
1947.5,0.1275
1952.5,0.1265
1957.5,0.1216
1962.5,0.1255
1967.5,0.1255
1972.5,0.1245
1977.5,0.12940000000000002
1982.5,0.1245
1987.5,0.1225
1992.5,0.1206
1997.5,0.1225
2002.5,0.1157
2007.4999999999998,0.1098
2012.5000000000002,0.11370000000000001
2017.5,0.1118
2022.5,0.11270000000000001
2027.4999999999998,0.11270000000000001
2032.5000000000002,0.1098
2037.5,0.10679999999999999
2042.5,0.10679999999999999
2047.4999999999998,0.10779999999999999
2052.5,0.1039
2057.5,0.1019
2062.5,0.09998
2067.5,0.09508
2072.5,0.09899
2077.5,0.101
2082.5,0.09703
2087.5,0.09606
2092.5,0.098
2097.5,0.09114
2102.5,0.09309999999999999
2107.5,0.09309999999999999
2112.5,0.08723
2117.5,0.09015999999999999
2122.5,0.08721999999999999
2127.5,0.08721999999999999
2132.5,0.08721999999999999
2137.5,0.08525
2142.5,0.09015000000000001
2147.5,0.0823
2152.5,0.08133
2157.5,0.07937000000000001
2162.5,0.08229
2167.5,0.08036
2172.5,0.08229
2177.5,0.07740000000000001
2182.5,0.07544
2187.5,0.06761
2192.5,0.0725
2197.5,0.07348
2202.5,0.08228
2207.5,0.07544
2212.5,0.07544
2217.5,0.0725
2222.5,0.07739
2227.5,0.07544
2232.5,0.07543000000000001
2237.5,0.06466
2242.5,0.05976
2247.5,0.07152
2252.5,0.07543000000000001
2257.5,0.07543000000000001
2262.5,0.07053
2267.5,0.07151
2272.5,0.06465
2277.5,0.06366
2282.5,0.06856
2287.5,0.06563
2292.5,0.06563
2297.5,0.06464
2302.5,0.06563
2307.5,0.06268
2312.5,0.061700000000000005
2317.5,0.05779
2322.5,0.05289
2327.5,0.05485
2332.5,0.05485
2337.5,0.05876
2342.5,0.05778
2347.5,0.05974
2352.5,0.06071
2357.5,0.06267
2362.5,0.06462999999999999
2367.5,0.06071
2372.5,0.06071
2377.5,0.05681
2382.5,0.05484000000000001
2387.5,0.05973
2392.5,0.05875
2397.5,0.05778
2402.5,0.05385
2407.5,0.05483
2412.5,0.05582
2417.5,0.05288
2422.5,0.056799999999999996
2427.5,0.05385
2432.5,0.05777
2437.5,0.05385
2442.5,0.05092
2447.5,0.04895
2452.5,0.04993
2457.5,0.05092
2462.5,0.04797
2467.5,0.05287
2472.5,0.04797
2477.5,0.05287
2482.5,0.04993
2487.5,0.046990000000000004
2492.5,0.053840000000000006
2497.5,0.046020000000000005
2502.5,0.04825
2507.5,0.0479
2512.5,0.04754
2517.5,0.047200000000000006
2522.5,0.04686
2527.5,0.046520000000000006
2532.5,0.04618
2537.5,0.04585
2542.5,0.045520000000000005
2547.5,0.045200000000000004
2552.5,0.04487
2557.5,0.04455
2562.5,0.044219999999999995
2567.5,0.0439
2572.5,0.043590000000000004
2577.5,0.04328
2582.5,0.04297
2587.5,0.04267
2592.5,0.04236
2597.5,0.04207
2602.5,0.04177
2607.5,0.041479999999999996
2612.5,0.04119
2617.5,0.0409
2622.5,0.04061
2627.5,0.04032
2632.5,0.040049999999999995
2637.5,0.03976
2642.5,0.039479999999999994
2647.5,0.03922
2652.5,0.03896
2657.5,0.03868
2662.5,0.03841
2667.5,0.038149999999999996
2672.5,0.03789
2677.5,0.037630000000000004
2682.5,0.037380000000000004
2687.5,0.03712
2692.5,0.03686
2697.5,0.0366
2702.5,0.036359999999999996
2707.5,0.036109999999999996
2712.5,0.03587
2717.5,0.03563
2722.5,0.0354
2727.5,0.03515
2732.5,0.03491
2737.5,0.03468
2742.5,0.03445
2747.5,0.03422
2752.5,0.03399
2757.5,0.03377
2762.5,0.03354
2767.5,0.03332
2772.5,0.03311
2777.5,0.03288
2782.5,0.032670000000000005
2787.5,0.03245
2792.5,0.032240000000000005
2797.5,0.03204
2802.5,0.03182
2807.5,0.03162
2812.5,0.031420000000000003
2817.5,0.03121
2822.5,0.031
2827.5,0.030809999999999997
2832.5,0.030600000000000002
2837.5,0.0304
2842.5,0.03021
2847.5,0.030010000000000002
2852.5,0.02981
2857.5,0.02963
2862.5,0.02944
2867.5,0.02924
2872.5,0.02905
2877.5,0.02887
2882.5,0.0287
2887.5,0.02851
2892.5,0.028329999999999998
2897.5,0.028140000000000002
2902.5,0.02797
2907.5,0.02779
2912.5,0.027620000000000002
2917.5,0.02745
2922.5,0.02727
2927.5,0.027100000000000003
2932.5,0.026920000000000003
2937.5,0.026760000000000003
2942.5,0.02659
2947.5,0.026420000000000003
2952.5,0.026260000000000002
2957.5,0.0261
2962.5,0.02594
2967.5,0.02578
2972.5,0.02562
2977.5,0.02546
2982.5,0.02531
2987.5,0.02515
2992.5,0.025
2997.5,0.02485
3005.0,0.0247
3015.0,0.024390000000000002
3025.0,0.0241
3035.0,0.0238
3045.0,0.02352
3055.0,0.02323
3065.0,0.02296
3075.0,0.022690000000000002
3085.0,0.02241
3095.0,0.02214
3105.0,0.02189
3115.0,0.02163
3125.0,0.02137
3135.0,0.02113
3145.0,0.02088
3155.0,0.020640000000000002
3165.0,0.020399999999999998
3175.0,0.02017
3185.0,0.01993
3195.0,0.019710000000000002
3205.0,0.019469999999999998
3215.0,0.01925
3225.0,0.01902
3235.0,0.01881
3245.0,0.018600000000000002
3255.0,0.01839
3265.0,0.018179999999999998
3275.0,0.01797
3285.0,0.01779
3295.0,0.01759
3305.0,0.0174
3315.0,0.0172
3325.0,0.01701
3335.0,0.016829999999999998
3345.0,0.016640000000000002
3355.0,0.016460000000000002
3365.0,0.01627
3375.0,0.0161
3385.0,0.01592
3395.0,0.01575
3405.0,0.01558
3415.0,0.01542
3425.0,0.01525
3435.0,0.01509
3445.0,0.01493
3455.0,0.01477
3465.0,0.01461
3475.0,0.01446
3485.0,0.01431
3495.0,0.014150000000000001
3505.0,0.014
3515.0,0.013859999999999999
3525.0,0.013710000000000002
3535.0,0.01357
3545.0,0.01343
3555.0,0.01328
3565.0,0.01316
3575.0,0.01303
3585.0,0.01289
3595.0,0.01276
3605.0,0.01262
3615.0,0.01249
3625.0,0.01238
3635.0,0.01226
3645.0,0.01213
3655.0,0.012
3665.0,0.01188
3675.0,0.01177
3685.0,0.01165
3695.0,0.011529999999999999
3705.0,0.01142
3715.0,0.01131
3725.0,0.0112
3735.0,0.01108
3745.0,0.01098
3755.0,0.01087
3765.0,0.01077
3775.0,0.01067
3785.0,0.01056
3795.0,0.01046
3805.0,0.010369999999999999
3815.0,0.01026
3825.0,0.01016
3835.0,0.010060000000000001
3845.0,0.009966
3855.0,0.009876
3865.0,0.009776
3875.0,0.009686
3885.0,0.009587
3895.0,0.009497
3905.0,0.009417
3915.0,0.009327
3925.0,0.009237
3935.0,0.009147
3945.0,0.009077
3955.0,0.008987
3965.0,0.008898
3975.0,0.008818
3985.0,0.008738
3995.0,0.008657999999999999
4005.0,0.008598000000000001
4014.9999999999995,0.008508
4025.0000000000005,0.008407999999999999
4035.0,0.008327999999999999
4045.0,0.008237999999999999
4054.9999999999995,0.008159000000000001
4065.0000000000005,0.008079000000000001
4075.0,0.007999
4085.0,0.007909
4094.9999999999995,0.007839
4105.0,0.007759
4115.0,0.007679
4125.0,0.007599
4135.0,0.007539
4145.0,0.00745
4155.0,0.00738
4165.0,0.00732
4175.0,0.00724
4185.0,0.00717
4195.0,0.00709
4205.0,0.007030000000000001
4215.0,0.0069500000000000004
4225.0,0.006889999999999999
4235.0,0.00683
4245.0,0.0067610000000000005
4255.0,0.0067009999999999995
4265.0,0.006621
4275.0,0.006571
4285.0,0.006511
4295.0,0.006441
4305.0,0.006381
4315.0,0.006320999999999999
4325.0,0.006261
4335.0,0.006211
4345.0,0.006141
4355.0,0.006091
4365.0,0.006032
4375.0,0.005972000000000001
4385.0,0.005912
4395.0,0.005872
4405.0,0.005802
4415.0,0.005762
4425.0,0.005702
4435.0,0.005642
4445.0,0.005592
4455.0,0.005542
4465.0,0.005492
4475.0,0.005442
4485.0,0.0054020000000000006
4495.0,0.005343
4505.0,0.005293
4515.0,0.005253
4525.0,0.005193
4535.0,0.005153
4545.0,0.005103
4555.0,0.005063
4565.0,0.005013
4575.0,0.004963
4585.0,0.004933
4595.0,0.004873000000000001
4605.0,0.0048330000000000005
4615.0,0.004803
4625.0,0.004753
4635.0,0.004703000000000001
4645.0,0.004673
4655.0,0.004624
4665.0,0.0045839999999999995
4675.0,0.004543999999999999
4685.0,0.004503999999999999
4695.0,0.004464
4705.0,0.0044340000000000004
4715.0,0.004384000000000001
4725.0,0.004344000000000001
4735.0,0.004314
4745.0,0.004284
4755.0,0.0042439999999999995
4765.0,0.004203999999999999
4775.0,0.004163999999999999
4785.0,0.0041340000000000005
4795.0,0.004094
4805.0,0.0040739999999999995
4815.0,0.004024
4825.0,0.003984
4835.0,0.003964
4845.0,0.003934
4855.0,0.003885
4865.0,0.003855
4875.0,0.0038250000000000003
4885.0,0.0037949999999999998
4895.0,0.003765
4905.0,0.003745
4915.0,0.003705
4925.0,0.003665
4935.0,0.0036349999999999998
4945.0,0.003615
4955.0,0.003585
4965.0,0.003545
4975.0,0.0035150000000000003
4985.0,0.0034950000000000003
4995.0,0.0034649999999999998
5005.0,0.0034649999999999998
5015.0,0.003435
5025.0,0.003395
5035.0,0.003375
5045.0,0.003355
5055.0,0.0033250000000000003
5065.0,0.003305
5075.0,0.0032749999999999997
5085.0,0.003255
5095.0,0.003225
5105.0,0.003196
5115.0,0.003176
5125.0,0.003146
5135.0,0.0031360000000000003
5145.0,0.0031160000000000003
5155.0,0.0030859999999999998
5165.0,0.003056
5175.0,0.0030259999999999996
5185.0,0.003016
5195.0,0.002996
5205.0,0.002976
5215.0,0.0029460000000000003
5225.0,0.002926
5235.0,0.0028959999999999997
5245.0,0.002886
5255.0,0.002856
5265.0,0.002836
5275.0,0.002816
5285.0,0.002796
5295.0,0.002786
5305.0,0.0027660000000000002
5315.0,0.002736
5325.0,0.002716
5335.0,0.002696
5345.0,0.002676
5355.0,0.002666
5365.0,0.002646
5375.0,0.002626
5385.0,0.002606
5395.0,0.0025859999999999998
5405.0,0.002556
5415.0,0.0025459999999999997
5425.0,0.0025259999999999996
5435.0,0.002506
5445.0,0.002497
5455.0,0.002477
5465.0,0.002457
5475.0,0.002437
5485.0,0.002427
5495.0,0.002407
5505.0,0.002387
5515.0,0.002367
5525.0,0.002347
5535.0,0.002337
5545.0,0.002317
5555.0,0.002307
5565.0,0.002297
5575.0,0.002277
5585.0,0.002267
5595.0,0.0022370000000000003
5605.0,0.0022170000000000002
5615.0,0.0022069999999999998
5625.0,0.0021869999999999997
5635.0,0.0021869999999999997
5645.0,0.0021669999999999997
5655.0,0.002157
5665.0,0.002137
5675.0,0.002127
5685.0,0.0021070000000000004
5695.0,0.002097
5705.0,0.0020670000000000003
5715.0,0.0020670000000000003
5725.0,0.002047
5735.0,0.0020369999999999997
5745.0,0.0020169999999999997
5755.0,0.002007
5765.0,0.001997
5775.0,0.001977
5785.0,0.001967
5795.0,0.001957
5805.0,0.0019470000000000002
5815.0,0.0019370000000000001
5825.0,0.0019270000000000001
5835.0,0.001897
5845.0,0.001887
5855.0,0.001877
5865.0,0.001857
5875.0,0.001847
5885.0,0.0018369999999999999
5895.0,0.0018369999999999999
5905.0,0.001817
5915.0,0.001807
5925.0,0.001797
5935.0,0.001787
5945.0,0.001778
5955.0,0.001758
5965.0,0.001748
5975.0,0.001728
5985.0,0.001718
5995.0,0.0017079999999999999
6005.0,0.0017079999999999999
6015.0,0.001688
6025.0,0.001678
6035.0,0.001668
6045.0,0.001658
6055.0,0.001648
6065.0,0.001638
6075.0,0.0016279999999999999
6085.0,0.001618
6095.0,0.001608
6105.0,0.001598
6115.0,0.001598
6125.0,0.001588
6135.0,0.001578
6145.0,0.0015580000000000001
6155.0,0.0015480000000000001
6165.0,0.001538
6175.0,0.001528
6185.0,0.001518
6195.0,0.001508
6205.0,0.001498
6215.0,0.001488
6225.0,0.001478
6235.0,0.001478
6245.0,0.001468
6255.0,0.0014579999999999999
6265.0,0.0014479999999999999
6275.0,0.001438
6285.0,0.001428
6295.0,0.001418
6305.0,0.001408
6315.0,0.001408
6325.0,0.001388
6335.0,0.0013779999999999999
6345.0,0.001368
6355.0,0.001358
6365.0,0.001358
6375.0,0.001348
6385.0,0.001338
6395.0,0.001338
6405.0,0.001328
6415.0,0.0013180000000000002
6425.0,0.0013080000000000001
6435.0,0.0012980000000000001
6445.0,0.0012980000000000001
6455.0,0.001288
6465.0,0.001278
6475.0,0.001268
6485.0,0.001258
6495.0,0.001258
6505.0,0.001248
6515.0,0.001248
6525.0,0.001238
6535.0,0.001238
6545.0,0.001218
6555.0,0.0012079999999999999
6565.0,0.0011979999999999998
6575.0,0.0011979999999999998
6585.0,0.001188
6595.0,0.001178
6605.0,0.001168
6615.0,0.001168
6625.0,0.001158
6635.0,0.001148
6645.0,0.001148
6655.0,0.001138
6665.0,0.0011279999999999999
6675.0,0.0011279999999999999
6685.0,0.001118
6695.0,0.001118
6705.0,0.001118
6715.0,0.001108
6725.0,0.001098
6735.0,0.001098
6745.0,0.001088
6755.0,0.001078
6765.0,0.001078
6775.0,0.0010689999999999999
6785.0,0.001059
6795.0,0.001059
6805.0,0.001039
6815.0,0.001039
6825.0,0.001029
6835.0,0.001019
6845.0,0.001019
6855.0,0.001009
6865.0,0.001009
6875.0,0.0009986
6885.0,0.0009986
6895.0,0.0009986
6905.0,0.0009886
6915.0,0.0009886
6925.0,0.0009786
6935.0,0.0009786
6945.0,0.0009686
6955.0,0.0009587
6965.0,0.0009587
6975.0,0.0009487
6985.0,0.0009487
6995.0,0.0009387
7000.0,0.00093870187
8000.0,0.00056331724
9000.0,0.00035811434
10000.0,0.00023837665
11000.0,0.00016474188
12000.0,0.00011746131
13000.0,8.5986122e-05
14000.0,6.4380232e-05
15000.0,4.9152848e-05
16000.0,3.8172231e-05
17000.0,3.009332e-05
18000.0,2.40428e-05
19000.0,1.9439159e-05
20000.0,1.5886396e-05
21000.0,1.3109371999999999e-05
22000.0,1.0913436999999999e-05
23000.0,9.1586071e-06
24000.0,7.7427073e-06
25000.0,6.5901363e-06
26000.0,5.6442546e-06
27000.0,4.8621391e-06
28000.0,4.2109149e-06
29000.0,3.6651548e-06
30000.0,3.205012e-06
31000.0,2.8148635e-06
32000.0,2.482313e-06
33000.0,2.1974518999999997e-06
34000.0,1.952304e-06
35000.0,1.7404072000000002e-06
36000.0,1.5564933e-06
37000.0,1.396243e-06
38000.0,1.2560948e-06
39000.0,1.1330973999999999e-06
40000.0,1.0247927000000001e-06
41000.0,9.2912401e-07
42000.0,8.4436291e-07
43000.0,7.6905051e-07
44000.0,7.0195059e-07
45000.0,6.4201161e-07
46000.0,5.8833577e-07
47000.0,5.4015391e-07
48000.0,4.9680484e-07
49000.0,4.5771838e-07
50000.0,4.224013e-07
51000.0,3.9042568000000004e-07
52000.0,3.6141925e-07
53000.0,3.350572e-07
54000.0,3.1105546e-07
55000.0,2.891649e-07
56000.0,2.6916658e-07
57000.0,2.5086755000000003e-07
58000.0,2.3409746e-07
59000.0,2.1870554e-07
60000.0,2.0455809e-07
61000.0,1.9153631e-07
62000.0,1.7953439e-07
63000.0,1.6845798e-07
64000.0,1.5822273999999998e-07
65000.0,1.4875315999999998e-07
66000.0,1.3998153e-07
67000.0,1.3184703e-07
68000.0,1.2429491e-07
69000.0,1.1727585e-07
70000.0,1.1074533e-07
71000.0,1.0466311e-07
72000.0,9.8992765e-08
73000.0,9.3701271e-08
74000.0,8.8758657e-08
75000.0,8.413768e-08
76000.0,7.981354799999999e-08
77000.0,7.576367000000001e-08
78000.0,7.1967434e-08
79000.0,6.8406015e-08
80000.0,6.506219800000001e-08
81000.0,6.192022e-08
82000.0,5.8965637e-08
83000.0,5.6185194999999996e-08
84000.0,5.3566721999999997e-08
85000.0,5.1099027e-08
86000.0,4.8771809e-08
87000.0,4.6575582e-08
88000.0,4.4501595999999994e-08
89000.0,4.2541776999999996e-08
90000.0,4.0688665e-08
91000.0,3.8935365e-08
92000.0,3.7275493e-08
93000.0,3.5703139e-08
94000.0,3.4212824e-08
95000.0,3.2799463e-08
96000.0,3.1458338999999995e-08
97000.0,3.0185064e-08
98000.0,2.8975562e-08
99000.0,2.7826038000000003e-08
100000.0,2.6732958000000002e-08
